wavelength,alpha
400,-60.59
400.14,-64.4
400.3,-68.29
400.48,-72.23
400.64,-75.44
400.8,-78.44
400.98,-81.62
401.16,-84.64
401.3,-86.9
401.5,-90.02
401.72,-93.34
401.92,-96.28
402.1,-98.88
402.26,-101.16
402.48,-104.27
402.58,-105.67
402.88,-109.87
403,-111.56
403.2,-114.36
403.42,-117.47
403.58,-119.75
403.72,-121.76
403.9,-124.37
404.06,-126.72
404.32,-130.61
404.46,-132.74
404.64,-135.53
404.76,-137.42
404.98,-140.96
405.14,-143.6
405.32,-146.64
405.48,-149.41
405.7,-153.34
405.86,-156.29
406.06,-160.1
406.26,-164.06
406.42,-167.34
406.62,-171.6
406.8,-175.6
406.98,-179.77
407.12,-183.14
407.32,-188.17
407.52,-193.48
407.68,-197.94
407.86,-203.22
408.02,-208.16
408.2,-214.03
408.38,-220.26
408.56,-226.9
408.74,-234
408.92,-241.6
409.1,-249.78
409.3,-259.64
409.46,-268.19
409.64,-278.62
409.84,-291.37
410.02,-304.06
410.2,-318.12
410.38,-333.78
410.56,-351.36
410.74,-371.25
410.92,-393.96
411.1,-420.17
411.28,-450.78
411.46,-487.05
411.64,-530.73
411.82,-584.43
412,-652.1
412.18,-740.09
412.38,-875.26
412.56,-1053.93
412.74,-1334.96
412.82,-1519.19
412.89,-1731.09
412.912,-1811.17
412.932,-1891.01
412.952,-1978.55
412.97,-2064.88
412.988,-2159.44
413.006,-2263.44
413.024,-2378.38
413.042,-2506.08
413.06,-2648.79
413.08,-2828.41
413.098,-3012.98
413.116,-3224.12
413.134,-3467.99
413.152,-3752.87
413.17,-4090.05
413.188,-4495.39
413.206,-4991.88
413.36699999999996,null
413.369,null
413.524,4893.68
413.544,4334.31
413.562,3928.5
413.58,3590.96
413.598,3305.8
413.616,3061.7
413.634,2850.39
413.652,2665.67
413.67,2502.83
413.688,2358.18
413.706,2228.85
413.724,2112.51
413.742,2007.31
413.76,1911.72
413.778,1824.48
413.796,1744.53
413.816,1663.2
413.834,1595.94
413.86,1507.43
413.968,1221.53
414.088,1004.05
414.248,805.93
414.408,668.48
414.588,556.68
414.768,473.4
414.948,408.92
415.128,357.47
415.308,315.43
415.488,280.4
415.668,250.74
415.848,225.27
416.028,203.15
416.208,183.74
416.388,166.55
416.588,149.61
416.768,135.98
416.948,123.64
417.128,112.41
417.308,102.13
417.488,92.68
417.648,84.89
417.828,76.73
418.008,69.14
418.208,61.29
418.388,54.69
418.568,48.49
418.728,43.28
418.948,36.52
419.108,31.87
419.268,27.43
419.488,21.62
419.648,17.6
419.808,13.73
419.988,9.54
420.208,4.64
420.368,1.21
420.568,-2.93
420.748,-6.53
420.908,-9.64
421.048,-12.3
421.248,-16
421.428,-19.25
421.628,-22.78
421.808,-25.89
422.028,-29.62
422.168,-31.96
422.428,-36.25
422.608,-39.19
422.628,-39.51
422.808,-42.44
423.028,-46
423.268,-49.91
423.488,-53.53
423.648,-56.2
423.788,-58.57
423.988,-62.03
424.168,-65.24
424.328,-68.19
424.528,-72.04
424.688,-75.28
424.888,-79.59
425.088,-84.26
425.248,-88.34
425.428,-93.4
425.608,-99.1
425.788,-105.67
425.968,-113.45
426.168,-124.14
426.348,-136.6
426.528,-153.43
426.708,-177.98
426.828,-202.11
426.93,-231.53
426.954,-240.27
426.974,-248.26
426.992,-256.07
427.012,-265.54
427.03,-274.89
427.048,-285.12
427.066,-296.38
427.084,-308.83
427.102,-322.67
427.12,-338.16
427.138,-355.61
427.156,-375.42
427.174,-398.1
427.192,-424.35
427.21,-455.08
427.228,-491.55
427.246,-535.55
427.264,-589.68
427.282,-657.91
427.3,-746.61
427.32,-882.63
427.338,-1061.86
427.356,-1342.19
427.376,-1923.89
427.396,-3483.87
427.419,null
427.42100000000005,null
427.452,2449.45
427.47,1546.3
427.488,1119.65
427.508,849.72
427.528,679.5
427.546,572.37
427.564,491.96
427.582,429.35
427.602,374.26
427.62,334.07
427.638,300.48
427.656,271.99
427.674,247.51
427.692,226.25
427.71,207.61
427.728,191.13
427.746,176.45
427.766,161.92
427.782,151.43
427.8,140.68
427.82,129.85
427.838,120.98
427.858,111.96
427.876,104.51
427.892,98.35
427.918,89.18
428.04,56.16
428.18,30.96
428.34,11.15
428.52,-4.67
428.7,-16.43
428.88,-25.62
429.06,-33.09
429.26,-39.98
429.44,-45.26
429.62,-49.89
429.8,-54.02
429.98,-57.75
430.16,-61.16
430.36,-64.65
430.54,-67.56
430.7,-70
430.86,-72.32
431.08,-75.34
431.26,-77.69
431.4,-79.45
431.58,-81.64
431.72,-83.29
431.92,-85.58
432.08,-87.36
432.3,-89.74
432.46,-91.43
432.68,-93.7
432.82,-95.12
433.04,-97.31
433.26,-99.46
433.4,-100.81
433.66,-103.28
433.78,-104.41
433.9,-105.53
434.14,-107.75
434.32,-109.4
434.5,-111.04
434.66,-112.49
434.92,-114.83
435,-115.54
435.18,-117.16
435.44,-119.47
435.52,-120.19
435.72,-121.96
435.88,-123.39
436.06,-124.98
436.22,-126.41
436.42,-128.18
436.62,-129.96
436.9,-132.46
437.08,-134.08
437.14,-134.61
437.36,-136.59
437.58,-138.58
437.8,-140.58
437.82,-140.77
438.12,-143.51
438.18,-144.07
438.4,-146.1
438.62,-148.15
438.82,-150.03
439.06,-152.31
439.16,-153.26
439.34,-154.99
439.46,-156.15
439.7,-158.49
439.92,-160.66
440.14,-162.86
440.24,-163.86
440.4,-165.48
440.64,-167.94
440.78,-169.39
441.04,-172.12
441.22,-174.03
441.38,-175.75
441.52,-177.27
441.76,-179.91
441.86,-181.02
442.06,-183.27
442.26,-185.55
442.42,-187.4
442.6,-189.51
442.74,-191.17
442.98,-194.06
443.2,-196.76
443.38,-199.01
443.54,-201.03
443.66,-202.57
443.86,-205.17
444.04,-207.55
444.22,-209.97
444.42,-212.71
444.6,-215.22
444.76,-217.49
444.98,-220.67
445.12,-222.73
445.32,-225.73
445.52,-228.79
445.72,-231.92
445.9,-234.8
446.02,-236.75
446.22,-240.06
446.42,-243.45
446.5,-244.83
446.72,-248.69
446.9,-251.93
447.06,-254.87
447.32,-259.78
447.5,-263.28
447.66,-266.46
447.88,-270.95
448.02,-273.88
448.18,-277.3
448.34,-280.8
448.56,-285.75
448.68,-288.52
448.84,-292.29
449.06,-297.63
449.26,-302.65
449.44,-307.31
449.62,-312.11
449.78,-316.5
449.98,-322.16
450.16,-327.43
450.34,-332.87
450.5,-337.86
450.7,-344.31
450.9,-351.01
451.08,-357.27
451.24,-363.03
451.4,-368.98
451.6,-376.7
451.76,-383.12
451.98,-392.32
452.18,-401.09
452.34,-408.4
452.48,-415.03
452.66,-423.89
452.86,-434.2
453.04,-443.94
453.22,-454.15
453.38,-463.65
453.56,-474.85
453.76,-487.97
453.94,-500.46
454.12,-513.63
454.3,-527.56
454.48,-542.32
454.66,-557.97
454.84,-574.61
455.02,-592.34
455.2,-611.27
455.38,-631.52
455.56,-653.26
455.74,-676.64
455.92,-701.86
456.1,-729.17
456.28,-758.82
456.46,-791.15
456.64,-826.53
456.82,-865.43
457,-908.4
457.18,-956.13
457.36,-1009.46
457.54,-1069.45
457.72,-1137.43
457.9,-1215.13
458.08,-1304.81
458.26,-1409.5
458.44,-1533.3
458.62,-1682.02
458.8,-1864.05
458.98,-2092.01
459.16,-2385.87
459.34,-2779.08
459.54,-3408.09
459.72,-4288.76
460.403,null
460.405,null
460.984,4900.84
461.104,4049.34
461.264,3283.28
461.424,2757.3
461.604,2333.03
461.784,2019.29
461.964,1777.84
462.144,1586.24
462.324,1430.48
462.504,1301.35
462.684,1192.54
462.864,1099.6
463.044,1019.27
463.224,949.14
463.404,887.38
463.584,832.56
463.764,783.58
463.944,739.53
464.124,699.71
464.304,663.53
464.504,627
464.684,597.02
464.864,569.42
465.044,543.93
465.224,520.31
465.404,498.37
465.584,477.92
465.764,458.81
465.944,440.92
466.124,424.13
466.304,408.34
466.484,393.46
466.664,379.41
466.844,366.12
467.004,354.9
467.204,341.59
467.404,329.01
467.584,318.27
467.764,308.03
467.944,298.26
468.104,289.94
468.284,280.97
468.484,271.44
468.644,264.14
468.784,257.96
468.984,249.47
469.164,242.14
469.364,234.32
469.564,226.82
469.744,220.32
469.944,213.37
470.104,208
470.324,200.88
470.484,195.88
470.684,189.83
470.824,185.72
470.964,181.71
471.184,175.6
471.404,169.71
471.544,166.07
471.724,161.51
471.864,158.05
472.064,153.24
472.224,149.49
472.444,144.48
472.624,140.5
472.764,137.47
472.964,133.25
473.124,129.95
473.324,125.93
473.504,122.4
473.704,118.57
473.924,114.47
474.044,112.28
474.244,108.7
474.424,105.55
474.664,101.45
474.804,99.11
474.964,96.48
475.204,92.62
475.384,89.79
475.544,87.32
475.684,85.19
475.884,82.2
476.064,79.56
476.264,76.68
476.364,75.26
476.564,72.46
476.764,69.71
476.984,66.74
477.124,64.88
477.364,61.75
477.484,60.2
477.664,57.91
477.824,55.9
478.044,53.18
478.204,51.23
478.444,48.35
478.584,46.69
478.764,44.58
478.984,42.04
479.124,40.44
479.324,38.18
479.524,35.95
479.704,33.97
479.784,33.09
479.984,30.92
480.144,29.2
480.384,26.65
480.604,24.34
480.724,23.09
480.904,21.23
481.104,19.18
481.284,17.35
481.384,16.34
481.684,13.34
481.784,12.34
481.964,10.56
482.144,8.79
482.384,6.45
482.464,5.67
482.704,3.35
482.884,1.62
482.984,0.67
483.204,-1.44
483.484,-4.1
483.504,-4.28
483.724,-6.37
483.884,-7.87
484.084,-9.76
484.384,-12.57
484.464,-13.33
484.644,-15.01
484.784,-16.33
485.064,-18.95
485.124,-19.52
485.344,-21.58
485.624,-24.22
485.824,-26.12
485.864,-26.49
486.064,-28.39
486.264,-30.3
486.544,-32.99
486.564,-33.19
486.764,-35.12
486.984,-37.27
487.184,-39.24
487.304,-40.43
487.484,-42.23
487.744,-44.86
487.904,-46.5
488.044,-47.95
488.344,-51.1
488.524,-53.03
488.624,-54.11
488.764,-55.64
488.944,-57.64
489.144,-59.9
489.404,-62.91
489.524,-64.33
489.704,-66.5
489.844,-68.22
490.064,-70.99
490.244,-73.32
490.484,-76.53
490.604,-78.18
490.804,-81.01
490.944,-83.05
491.184,-86.68
491.364,-89.52
491.524,-92.14
491.684,-94.86
491.864,-98.04
492.104,-102.52
492.244,-105.27
492.444,-109.4
492.604,-112.89
492.804,-117.51
492.964,-121.45
493.164,-126.7
493.324,-131.21
493.504,-136.65
493.684,-142.54
493.864,-148.95
494.024,-155.15
494.204,-162.8
494.404,-172.28
494.584,-181.88
494.764,-192.72
494.944,-205.08
495.124,-219.34
495.304,-236.02
495.484,-255.84
495.664,-279.84
495.844,-309.58
496.024,-347.49
496.204,-397.63
496.404,-476.67
496.584,-585.35
496.704,-694.25
496.806,-828.57
496.828,-865.2
496.848,-901.61
496.868,-941.42
496.886,-980.56
496.904,-1023.3
496.922,-1070.14
496.94,-1121.72
496.958,-1178.79
496.976,-1242.28
496.994,-1313.33
497.014,-1402.92
497.032,-1495.17
497.05,-1600.92
497.068,-1723.38
497.086,-1866.85
497.104,-2037.27
497.122,-2243
497.14,-2496.31
497.158,-2815.86
497.176,-3231.54
497.196,-3869.54
497.214,-4711.03
497.29499999999996,null
497.297,null
497.384,4246.38
497.404,3452.52
497.422,2952.85
497.44,2577.76
497.46,2257.31
497.478,2028.99
497.496,1841.67
497.514,1685.22
497.532,1552.58
497.55,1438.7
497.568,1339.87
497.586,1253.28
497.604,1176.78
497.622,1108.72
497.64,1047.76
497.658,992.85
497.676,943.12
497.696,893.11
497.714,852.18
497.732,814.62
497.75,780.03
497.768,748.07
497.794,705.97
497.916,555.42
498.056,441.97
498.216,354.34
498.396,285.97
498.576,236.59
498.756,199.19
498.936,169.82
499.116,146.1
499.296,126.51
499.476,110.02
499.676,94.48
499.856,82.46
500.036,71.91
500.196,63.55
500.376,55.1
500.576,46.7
500.756,39.88
500.936,33.66
501.136,27.35
501.316,22.13
501.516,16.78
501.656,13.28
501.836,9.04
502.016,5.07
502.216,0.93
502.416,-2.95
502.596,-6.25
502.756,-9.04
502.916,-11.71
503.076,-14.27
503.276,-17.33
503.436,-19.67
503.596,-21.93
503.756,-24.11
503.956,-26.73
504.156,-29.25
504.376,-31.91
504.536,-33.78
504.716,-35.82
504.896,-37.8
505.036,-39.3
505.216,-41.18
505.356,-42.61
505.556,-44.6
505.796,-46.92
505.976,-48.61
506.116,-49.9
506.336,-51.88
506.496,-53.29
506.616,-54.33
506.856,-56.37
507.096,-58.36
507.236,-59.5
507.436,-61.1
507.596,-62.36
507.796,-63.91
507.956,-65.13
508.196,-66.93
508.296,-67.67
508.476,-68.99
508.716,-70.72
508.916,-72.14
509.116,-73.54
509.256,-74.51
509.456,-75.88
509.636,-77.1
509.676,-77.36
509.916,-78.97
510.136,-80.42
510.376,-81.98
510.436,-82.37
510.676,-83.91
510.916,-85.43
510.976,-85.8
511.216,-87.31
511.436,-88.67
511.636,-89.9
511.716,-90.38
511.856,-91.24
512.076,-92.57
512.236,-93.53
512.476,-94.96
512.696,-96.26
512.796,-96.84
512.936,-97.67
513.116,-98.72
513.276,-99.64
513.456,-100.69
513.656,-101.84
513.936,-103.44
514.156,-104.69
514.216,-105.02
514.356,-105.82
514.676,-107.62
514.776,-108.17
514.896,-108.85
515.216,-110.63
515.416,-111.73
515.496,-112.18
515.676,-113.17
515.956,-114.71
515.996,-114.92
516.296,-116.57
516.336,-116.78
516.636,-118.42
516.796,-119.28
516.916,-119.94
517.056,-120.69
517.236,-121.67
517.436,-122.74
517.596,-123.61
517.776,-124.57
518.056,-126.08
518.276,-127.25
518.336,-127.58
518.656,-129.29
518.676,-129.39
518.896,-130.57
519.036,-131.31
519.256,-132.49
519.556,-134.08
519.656,-134.62
519.776,-135.25
519.936,-136.11
520.216,-137.59
520.316,-138.13
520.536,-139.29
520.796,-140.68
520.856,-140.99
521.116,-142.38
521.336,-143.54
521.496,-144.4
521.556,-144.71
521.876,-146.42
521.996,-147.05
522.156,-147.91
522.276,-148.54
522.496,-149.72
522.636,-150.46
522.856,-151.64
523.056,-152.7
523.176,-153.35
523.376,-154.41
523.576,-155.49
523.796,-156.66
523.936,-157.42
524.096,-158.27
524.416,-160
524.436,-160.1
524.776,-161.94
524.796,-162.04
524.976,-163.02
525.216,-164.31
525.456,-165.62
525.616,-166.48
525.756,-167.25
525.976,-168.44
526.176,-169.54
526.236,-169.86
526.556,-171.62
526.596,-171.83
526.896,-173.48
527.116,-174.69
527.176,-175.03
527.476,-176.68
527.536,-177.02
527.736,-178.12
527.916,-179.13
528.036,-179.79
528.296,-181.25
528.396,-181.8
528.596,-182.93
528.756,-183.82
529.056,-185.51
529.136,-185.97
529.316,-186.98
529.496,-188.01
529.656,-188.91
529.996,-190.85
530.176,-191.89
530.216,-192.11
530.536,-193.95
530.576,-194.19
530.756,-195.22
530.996,-196.62
531.156,-197.54
531.316,-198.48
531.456,-199.29
531.736,-200.93
531.896,-201.88
531.996,-202.46
532.216,-203.76
532.516,-205.54
532.696,-206.62
532.756,-206.97
532.916,-207.93
533.236,-209.85
533.296,-210.22
533.516,-211.54
533.696,-212.64
533.816,-213.36
534.016,-214.58
534.196,-215.69
534.336,-216.54
534.536,-217.78
534.696,-218.76
534.996,-220.62
535.056,-221
535.316,-222.62
535.476,-223.62
535.616,-224.51
535.776,-225.51
536.016,-227.03
536.236,-228.43
536.396,-229.46
536.516,-230.22
536.796,-232.02
536.896,-232.67
537.156,-234.36
537.376,-235.79
537.536,-236.83
537.576,-237.1
537.816,-238.67
538.076,-240.39
538.236,-241.46
538.296,-241.85
538.616,-243.99
538.716,-244.67
538.836,-245.47
539.036,-246.82
539.276,-248.45
539.376,-249.14
539.576,-250.5
539.816,-252.15
540.036,-253.67
540.196,-254.79
540.276,-255.34
540.616,-257.72
540.716,-258.42
540.876,-259.55
541.016,-260.55
541.196,-261.82
541.516,-264.11
541.676,-265.26
541.736,-265.7
542.036,-267.87
542.216,-269.18
542.256,-269.48
542.516,-271.38
542.676,-272.56
542.916,-274.34
543.136,-275.99
543.296,-277.18
543.336,-277.49
543.556,-279.14
543.776,-280.81
544.016,-282.64
544.136,-283.56
544.336,-285.1
544.576,-286.96
544.656,-287.59
544.816,-288.83
545.096,-291.03
545.296,-292.61
545.436,-293.73
545.496,-294.2
545.836,-296.92
545.856,-297.09
546.096,-299.02
546.256,-300.32
546.496,-302.28
546.596,-303.1
546.876,-305.41
547.096,-307.24
547.216,-308.24
547.396,-309.75
547.536,-310.93
547.816,-313.31
547.976,-314.67
548.016,-315.02
548.216,-316.73
548.536,-319.5
548.676,-320.72
548.796,-321.77
548.936,-323
549.176,-325.12
549.376,-326.9
549.536,-328.33
549.796,-330.67
549.816,-330.86
550.056,-333.03
550.316,-335.41
550.376,-335.96
550.696,-338.92
550.856,-340.41
550.916,-340.98
551.116,-342.85
551.296,-344.55
551.456,-346.07
551.736,-348.75
551.896,-350.29
552.056,-351.84
552.296,-354.18
552.456,-355.75
552.616,-357.33
552.716,-358.32
553.036,-361.52
553.176,-362.92
553.356,-364.74
553.536,-366.57
553.736,-368.62
553.816,-369.44
554.076,-372.13
554.176,-373.17
554.476,-376.32
554.596,-377.58
554.836,-380.13
554.896,-380.78
555.056,-382.49
555.216,-384.21
555.416,-386.38
555.576,-388.13
555.896,-391.65
556.076,-393.65
556.196,-394.99
556.436,-397.69
556.596,-399.5
556.796,-401.78
556.996,-404.08
557.076,-405
557.276,-407.32
557.396,-408.72
557.636,-411.54
557.836,-413.91
557.936,-415.1
558.236,-418.7
558.416,-420.88
558.576,-422.83
558.756,-425.04
558.956,-427.51
559.136,-429.75
559.336,-432.26
559.496,-434.28
559.676,-436.57
559.876,-439.13
560.056,-441.45
560.236,-443.79
560.376,-445.62
560.516,-447.46
560.756,-450.64
560.896,-452.51
560.996,-453.85
561.216,-456.82
561.396,-459.27
561.616,-462.29
561.796,-464.78
561.916,-466.45
562.196,-470.38
562.376,-472.93
562.556,-475.5
562.736,-478.09
562.936,-480.99
563.116,-483.62
563.256,-485.68
563.416,-488.05
563.516,-489.54
563.756,-493.14
563.916,-495.56
564.116,-498.61
564.256,-500.76
564.516,-504.79
564.716,-507.92
564.916,-511.08
564.996,-512.35
565.236,-516.19
565.376,-518.45
565.596,-522.03
565.656,-523.01
565.936,-527.63
566.116,-530.63
566.356,-534.67
566.536,-537.73
566.696,-540.47
566.856,-543.23
567.036,-546.36
567.236,-549.87
567.396,-552.7
567.576,-555.91
567.776,-559.51
567.916,-562.05
568.096,-565.34
568.296,-569.03
568.416,-571.26
568.676,-576.14
568.876,-579.94
569.056,-583.38
569.216,-586.47
569.416,-590.37
569.516,-592.33
569.676,-595.49
569.936,-600.68
570.136,-604.72
570.256,-607.16
570.416,-610.44
570.616,-614.58
570.756,-617.5
570.956,-621.71
571.116,-625.11
571.316,-629.4
571.536,-634.17
571.756,-639
571.916,-642.54
572.016,-644.77
572.236,-649.72
572.436,-654.27
572.636,-658.87
572.816,-663.05
573.016,-667.75
573.176,-671.54
573.376,-676.33
573.556,-680.68
573.736,-685.08
573.916,-689.52
574.096,-694.01
574.276,-698.54
574.456,-703.12
574.636,-707.74
574.756,-710.85
574.916,-715.03
575.116,-720.31
575.316,-725.65
575.496,-730.51
575.696,-735.97
575.876,-740.94
576.076,-746.53
576.176,-749.34
576.416,-756.17
576.556,-760.2
576.736,-765.43
576.936,-771.31
577.156,-777.86
577.316,-782.68
577.496,-788.16
577.616,-791.85
577.796,-797.43
578.016,-804.34
578.136,-808.15
578.356,-815.21
578.536,-821.06
578.756,-828.3
578.896,-832.96
579.056,-838.34
579.236,-844.46
579.456,-852.04
579.616,-857.62
579.776,-863.26
579.956,-869.68
580.156,-876.9
580.356,-884.22
580.516,-890.15
580.656,-895.39
580.816,-901.44
581.036,-909.87
581.256,-918.43
581.416,-924.74
581.576,-931.12
581.796,-940.01
581.976,-947.39
582.136,-954.03
582.336,-962.44
582.516,-970.11
582.636,-975.28
582.856,-984.88
583.076,-994.64
583.196,-1000.03
583.396,-1009.12
583.576,-1017.42
583.776,-1026.78
583.896,-1032.46
584.096,-1042.05
584.296,-1051.79
584.456,-1059.69
584.636,-1068.7
584.836,-1078.86
584.976,-1086.07
585.176,-1096.51
585.376,-1107.12
585.556,-1116.82
585.736,-1126.66
585.916,-1136.65
586.096,-1146.79
586.296,-1158.24
586.496,-1169.88
586.616,-1176.96
586.836,-1190.13
586.996,-1199.87
587.136,-1208.5
587.356,-1222.28
587.516,-1232.47
587.696,-1244.11
587.916,-1258.59
588.056,-1267.96
588.216,-1278.81
588.416,-1292.6
588.596,-1305.23
588.816,-1320.96
588.956,-1331.14
589.116,-1342.94
589.296,-1356.43
589.516,-1373.24
589.716,-1388.84
589.896,-1403.14
590.036,-1414.44
590.216,-1429.2
590.396,-1444.23
590.576,-1459.54
590.736,-1473.38
590.936,-1491.01
591.136,-1509.01
591.316,-1525.54
591.476,-1540.5
591.676,-1559.56
591.856,-1577.07
592.056,-1596.93
592.216,-1613.14
592.396,-1631.72
592.556,-1648.56
592.716,-1665.7
592.936,-1689.79
593.096,-1707.7
593.276,-1728.25
593.436,-1746.89
593.636,-1770.69
593.836,-1795.07
594.016,-1817.53
594.176,-1837.91
594.356,-1861.33
594.556,-1887.98
594.756,-1915.32
594.916,-1937.7
595.096,-1963.45
595.276,-1989.81
595.456,-2016.81
595.616,-2041.36
595.796,-2069.63
595.976,-2098.61
596.156,-2128.33
596.356,-2162.24
596.516,-2190.08
596.696,-2222.18
596.876,-2255.14
597.056,-2288.99
597.256,-2327.69
597.416,-2359.51
597.616,-2400.41
597.796,-2438.34
597.976,-2477.36
598.156,-2517.53
598.336,-2558.91
598.516,-2601.54
598.696,-2645.48
598.856,-2685.68
599.036,-2732.27
599.216,-2780.36
599.396,-2830.02
599.596,-2887.13
599.776,-2940.37
599.956,-2995.44
600.136,-3052.44
600.316,-3111.47
600.496,-3172.63
600.676,-3236.06
600.856,-3301.86
601.036,-3370.19
601.216,-3441.18
601.396,-3514.99
601.576,-3591.8
601.756,-3671.79
601.936,-3755.15
602.116,-3842.12
602.296,-3932.92
602.476,-4027.81
602.656,-4127.08
602.836,-4231.02
603.016,-4339.99
603.196,-4454.35
603.376,-4574.51
603.556,-4700.91
603.736,-4834.07
603.916,-4974.53
610.509,null
610.511,null
618.17,4967.16
618.35,4863.37
618.53,4764.3
618.71,4669.64
618.89,4579.09
619.07,4492.41
619.25,4409.35
619.43,4329.7
619.61,4253.25
619.79,4179.81
619.97,4109.23
620.15,4041.33
620.33,3975.97
620.51,3913.01
620.69,3852.34
620.87,3793.82
621.05,3737.34
621.23,3682.82
621.41,3630.14
621.59,3579.23
621.77,3529.99
621.95,3482.35
622.15,3431.2
622.33,3386.7
622.51,3343.58
622.69,3301.79
622.87,3261.25
623.05,3221.93
623.21,3187.96
623.39,3150.79
623.57,3114.69
623.77,3075.79
623.95,3041.82
624.13,3008.79
624.29,2980.2
624.47,2948.86
624.65,2918.37
624.83,2888.69
625.01,2859.79
625.19,2831.65
625.37,2804.24
625.55,2777.53
625.73,2751.5
