wavelength,alpha(m=0)
400,-553.22
401,-564.93
402,-577.04
403,-589.57
404,-602.54
405,-615.98
406,-629.91
407,-644.36
408,-659.35
409,-674.92
410,-691.11
411,-707.95
412,-725.48
413,-743.74
414,-762.79
415,-782.66
416,-803.43
417,-825.14
418,-847.86
419,-871.68
420,-896.66
421,-922.89
422,-950.48
423,-979.53
424,-1010.15
425,-1042.49
426,-1076.68
427,-1112.9
428,-1151.32
429,-1192.15
430,-1235.63
431,-1282.03
432,-1331.64
474,3410.1
689,171.59
400.5,-559.03
401.5,-570.93
402.5,-583.25
403.5,-596
404.5,-609.2
405.5,-622.88
406.5,-637.07
407.5,-651.78
408.5,-667.06
409.5,-682.94
410.5,-699.45
411.5,-716.63
412.5,-734.52
413.5,-753.16
414.5,-772.62
415.5,-792.93
416.5,-814.16
417.5,-836.37
418.5,-859.63
419.5,-884.02
420.5,-909.61
421.5,-936.51
422.5,-964.82
423.5,-994.64
424.5,-1026.1
425.5,-1059.34
426.5,-1094.53
427.5,-1131.82
428.5,-1171.42
429.5,-1213.54
430.5,-1258.45
431.5,-1306.41
432.08,-1335.76
432.16,-1339.9
432.24,-1344.07
432.32,-1348.26
432.4,-1352.47
432.48,-1356.7
432.56,-1360.96
432.64,-1365.24
432.67,-1366.86
432.68,-1367.39
432.69,-1367.93
432.7,-1368.47
432.71,-1369.01
432.72,-1369.55
432.73,-1370.09
432.74,-1370.63
432.75,-1371.17
432.76,-1371.71
432.77,-1372.26
432.78,-1372.8
432.79,-1373.34
432.8,-1373.88
432.81,-1374.43
432.82,-1374.97
432.83,-1375.51
432.84,-1376.06
432.85,-1376.6
432.86,-1377.15
432.87,-1377.69
432.95,-1382.07
433.03,-1386.48
433.11,-1390.91
433.19,-1395.36
433.27,-1399.84
433.35,-1404.35
433.43,-1408.88
433.51,-1413.44
434.01,-1442.56
434.51,-1472.78
435.01,-1504.17
435.51,-1536.79
436.01,-1570.74
436.51,-1606.07
437.01,-1642.89
437.51,-1681.29
438.01,-1721.36
438.51,-1763.24
439.01,-1807.02
439.51,-1852.86
440.01,-1900.9
440.51,-1951.3
441.01,-2004.24
441.51,-2059.92
442.01,-2118.55
442.51,-2180.37
443.01,-2245.67
443.51,-2314.72
444.01,-2387.87
444.51,-2465.5
445.01,-2548.03
445.51,-2635.93
446.01,-2729.75
446.8,-2891.59
447.3,-3003.76
447.8,-3124.53
448.3,-3254.91
448.8,-3396.1
449.3,-3549.5
449.8,-3716.77
450.3,-3899.88
450.8,-4101.19
451.3,-4323.55
451.8,-4570.45
452.3,-4846.19
460.86,
460.885,
470.1,4785.2
470.6,4547.35
471.1,4332.73
471.6,4138.09
472.1,3960.78
472.6,3798.58
473.1,3649.64
473.6,3512.38
473.68,3491.42
473.76,3470.71
473.84,3450.26
473.92,3430.06
473.96,3420.05
474.04,3400.22
474.08,3390.39
474.12,3380.62
474.16,3370.92
474.2,3361.27
474.24,3351.67
474.28,3342.14
474.32,3332.66
474.33,3330.3
474.37,3320.89
474.41,3311.54
474.45,3302.24
474.49,3293
474.53,3283.81
474.57,3274.67
474.61,3265.59
474.65,3256.56
474.69,3247.58
474.73,3238.66
474.81,3220.96
474.89,3203.47
474.97,3186.17
475.05,3169.07
475.55,3066.4
476.05,2970.5
476.55,2880.71
477.05,2796.47
477.55,2717.27
478.05,2642.69
478.55,2572.33
479.05,2505.83
479.55,2442.89
480.05,2383.24
480.55,2326.61
481.05,2272.79
481.55,2221.58
482.05,2172.78
482.55,2126.23
482.64,2118.08
482.73,2110
482.82,2101.98
482.91,2094.02
482.94,2091.39
482.99,2087.01
483.04,2082.65
483.09,2078.31
483.14,2073.99
483.19,2069.69
483.24,2065.41
483.29,2061.15
483.39,2052.68
483.44,2048.48
483.49,2044.29
483.54,2040.13
483.59,2035.98
483.64,2031.84
483.69,2027.73
483.74,2023.64
483.79,2019.56
483.84,2015.5
483.89,2011.46
483.98,2004.22
484.07,1997.05
484.16,1989.93
484.25,1982.86
484.75,1944.58
485.25,1907.87
485.75,1872.63
486.25,1838.79
486.75,1806.25
487.25,1774.94
487.75,1744.8
488.25,1715.76
488.75,1687.77
489.25,1660.76
489.75,1634.68
490.25,1609.5
490.75,1585.15
491.25,1561.61
491.75,1538.83
492.25,1516.78
492.75,1495.42
493.25,1474.72
493.75,1454.65
494.25,1435.18
494.75,1416.29
495.25,1397.94
495.75,1380.13
496.25,1362.81
496.75,1345.98
497.25,1329.61
497.75,1313.69
498.25,1298.19
498.75,1283.11
499.25,1268.41
499.75,1254.1
500.25,1240.15
500.75,1226.54
501.25,1213.28
501.75,1200.34
502.25,1187.71
502.75,1175.39
503.25,1163.36
503.75,1151.6
504.25,1140.12
504.75,1128.9
505.25,1117.94
505.75,1107.22
506.25,1096.73
506.75,1086.48
507.25,1076.44
507.75,1066.62
508.25,1057.01
508.75,1047.6
509.25,1038.38
509.75,1029.35
510.25,1020.51
510.75,1011.84
511.25,1003.35
511.75,995.02
512.25,986.86
512.75,978.85
513.25,971
513.75,963.29
514.25,955.73
514.75,948.31
515.25,941.03
515.75,933.88
516.25,926.86
516.75,919.96
517.25,913.19
517.75,906.54
518.25,900
518.75,893.58
519.25,887.26
519.75,881.06
520.25,874.96
520.75,868.96
521.25,863.06
521.75,857.26
522.25,851.55
522.75,845.94
523.25,840.41
523.75,834.97
524.25,829.62
524.75,824.36
525.25,819.17
525.75,814.07
526.25,809.04
526.75,804.09
527.25,799.22
527.75,794.42
528.25,789.69
528.75,785.03
529.25,780.44
529.75,775.91
530.25,771.45
530.75,767.06
531.25,762.72
531.75,758.45
532.25,754.24
532.75,750.09
533.25,745.99
533.75,741.96
534.25,737.97
534.75,734.04
535.25,730.17
535.75,726.34
536.25,722.57
536.75,718.85
537.25,715.17
537.75,711.55
538.25,707.97
538.75,704.43
539.25,700.95
539.75,697.5
540.25,694.1
540.75,690.75
541.25,687.43
541.75,684.16
542.25,680.92
542.75,677.73
543.25,674.57
543.75,671.46
544.25,668.38
544.75,665.34
545.25,662.33
545.75,659.36
546.25,656.42
546.75,653.52
547.25,650.65
547.75,647.82
548.25,645.02
548.75,642.25
549.25,639.51
549.75,636.8
550.25,634.13
550.75,631.48
551.25,628.86
551.75,626.27
552.25,623.71
552.75,621.18
553.25,618.68
553.75,616.2
554.25,613.75
554.75,611.32
555.25,608.93
555.75,606.55
556.25,604.21
556.75,601.88
557.25,599.58
557.75,597.31
558.25,595.05
558.75,592.83
559.25,590.62
559.75,588.44
560.25,586.28
560.75,584.14
561.25,582.02
561.75,579.92
562.25,577.84
562.75,575.79
563.25,573.75
563.75,571.74
564.25,569.74
564.75,567.76
565.25,565.81
565.75,563.87
566.25,561.95
566.75,560.04
567.25,558.16
567.75,556.29
568.25,554.45
568.75,552.61
569.25,550.8
569.75,549
570.25,547.22
570.75,545.45
571.25,543.71
571.75,541.97
572.25,540.25
572.75,538.55
573.25,536.87
573.75,535.19
574.25,533.54
574.75,531.9
575.25,530.27
575.75,528.65
576.25,527.05
576.75,525.47
577.25,523.9
577.75,522.34
578.25,520.79
578.75,519.26
579.25,517.74
579.75,516.24
580.25,514.74
580.75,513.26
581.25,511.79
581.75,510.34
582.25,508.89
582.75,507.46
583.25,506.04
583.75,504.63
584.25,503.24
584.75,501.85
585.25,500.48
585.75,499.11
586.25,497.76
586.75,496.42
587.25,495.09
587.75,493.77
588.25,492.46
588.75,491.16
589.25,489.87
589.75,488.59
590.25,487.32
590.75,486.06
591.25,484.81
591.75,483.57
592.25,482.33
592.75,481.11
593.25,479.9
593.75,478.7
594.25,477.5
594.75,476.32
595.25,475.14
595.75,473.97
596.25,472.81
596.75,471.66
597.25,470.52
597.75,469.39
598.25,468.26
598.75,467.15
599.25,466.04
599.75,464.94
600.25,463.84
600.75,462.76
601.25,461.68
601.75,460.61
602.25,459.55
602.75,458.49
603.25,457.45
603.75,456.41
604.25,455.37
604.75,454.35
605.25,453.33
605.75,452.32
606.25,451.31
606.75,450.32
607.25,449.32
607.75,448.34
608.25,447.36
608.75,446.39
609.25,445.43
609.75,444.47
610.25,443.52
610.75,442.57
611.25,441.64
611.75,440.7
612.25,439.78
612.75,438.86
613.25,437.94
613.75,437.03
614.25,436.13
614.75,435.23
615.25,434.34
615.75,433.46
616.25,432.58
616.75,431.7
617.25,430.83
617.75,429.97
618.25,429.11
618.75,428.26
619.25,427.41
619.75,426.57
620.25,425.74
620.75,424.91
621.25,424.08
621.75,423.26
622.25,422.44
622.75,421.63
623.25,420.82
623.75,420.02
624.25,419.23
624.75,418.43
625.25,417.65
625.75,416.86
626.25,416.09
626.75,415.31
627.25,414.54
627.75,413.78
628.25,413.02
628.75,412.26
629.25,411.51
629.75,410.77
630.25,410.02
630.75,409.28
631.25,408.55
631.75,407.82
632.25,407.09
632.75,406.37
633.25,405.65
633.75,404.94
634.25,404.23
634.75,403.52
635.25,402.82
635.75,402.12
636.25,401.42
636.75,400.73
637.25,400.05
637.75,399.36
638.25,398.68
638.75,398
639.25,397.33
639.75,396.66
640.25,395.99
640.75,395.33
641.25,394.67
641.75,394.01
642.25,393.36
642.75,392.71
643.25,392.06
643.75,391.42
644.25,390.78
644.75,390.14
645.25,389.5
645.75,388.87
646.25,388.24
646.75,387.61
647.25,386.99
647.75,386.37
648.25,385.75
648.75,385.14
649.25,384.52
649.75,383.91
650.25,383.31
650.75,382.7
651.25,382.1
651.75,381.5
652.25,380.9
652.75,380.3
653.25,379.71
653.75,379.12
654.25,378.53
654.75,377.94
655.25,377.36
655.75,376.77
656.25,376.19
656.75,375.61
657.25,375.03
657.75,374.46
658.25,373.88
658.75,373.31
659.25,372.74
659.75,372.17
660.25,371.6
660.75,371.03
661.25,370.46
661.75,369.89
662.25,369.33
662.75,368.76
663.25,368.2
663.75,367.63
664.25,367.07
664.75,366.51
665.25,365.94
665.75,365.38
666.25,364.81
666.75,364.25
667.25,363.68
667.75,363.11
668.25,362.54
668.75,361.97
669.25,361.4
669.75,360.82
670.25,360.24
670.75,359.66
671.25,359.08
671.75,358.49
672.25,357.89
672.75,357.29
673.25,356.68
673.75,356.07
674.25,355.45
674.75,354.82
675.25,354.18
675.75,353.52
676.25,352.86
676.75,352.18
677.25,351.48
677.75,350.76
678.25,350.03
678.75,351.08
678.81,349.41
678.87,349.16
678.93,349.02
678.99,348.9
679.02,348.85
679.05,348.8
679.08,348.74
679.11,348.69
679.14,348.64
679.17,348.59
679.2,348.54
679.23,348.49
679.26,348.44
679.32,348.34
679.35,348.3
679.38,348.25
679.41,348.2
679.44,348.15
679.47,348.1
679.5,348.04
679.53,347.99
679.56,347.94
679.59,347.89
679.62,347.84
679.68,347.74
679.74,347.64
679.8,347.54
679.86,347.43
680.36,346.55
680.86,345.61
681.36,344.61
681.86,343.54
682.36,342.39
682.86,341.12
683.36,339.71
683.86,338.13
684.4,336.17
684.9,334.03
685.4,331.46
685.9,328.3
686.4,324.23
686.9,318.72
687.4,310.73
687.9,297.84
688.4,273.05
688.9,203.83
688.95,189.32
689.05,149.43
689.1,120.94
689.15,82.93
689.2,29.68
689.25,-50.3
689.3,-183.89
689.35,-452.25
689.4,-1267.1
689.415,-1977.52
689.419,-2286.56
689.423,-2690.32
689.427,-3240.25
689.431,-4033.26
689.4490000000001,
689.453,
689.467,4777.04
689.471,3968.09
689.475,3409
689.479,2999.49
689.483,2686.61
689.487,2439.78
689.491,2240.07
689.541,1210.5
689.591,906.45
689.641,760.83
689.691,675.38
689.741,619.2
689.791,579.43
689.841,549.81
689.891,526.88
689.941,508.6
689.991,493.69
690.491,423.08
690.991,398.01
691.491,385.03
691.991,377
692.491,371.49
692.991,367.43
693.491,364.28
693.991,361.74
694.491,359.63
694.991,357.84
695.491,356.28
695.991,354.9
696.491,353.67
696.991,352.55
697.491,351.53
697.991,350.59
698.491,349.71
698.991,348.89
699.491,348.11
699.991,347.38
700.491,346.68
700.991,346.01
701.491,345.37
701.991,344.75
702.491,344.16
702.991,343.58
703.491,343.02
703.991,342.48
704.491,341.95
704.991,341.44
705.491,340.94
705.991,340.44
706.491,339.96
706.991,339.49
707.491,339.03
707.991,338.57
708.491,338.13
708.991,337.69
709.491,337.25
709.991,336.83
710.491,336.4
710.991,335.99
711.491,335.58
711.991,335.17
712.491,334.77
712.991,334.38
713.491,333.99
713.991,333.6
714.491,333.21
714.991,332.84
715.491,332.46
715.991,332.09
716.491,331.72
716.991,331.35
717.491,330.99
717.991,330.63
718.491,330.27
718.991,329.92
719.491,329.57
719.991,329.22
720.491,328.88
720.991,328.53
721.491,328.19
721.991,327.85
722.491,327.52
722.991,327.19
723.491,326.85
723.991,326.53
724.491,326.2
724.991,325.87
725.491,325.55
725.991,325.23
726.491,324.91
726.991,324.59
727.491,324.28
727.991,323.97
728.491,323.65
728.991,323.34
729.491,323.04
729.991,322.73
730.491,322.43
730.991,322.12
731.491,321.82
731.991,321.52
732.491,321.22
732.991,320.93
733.491,320.63
733.991,320.34
734.491,320.05
734.991,319.76
735.491,319.47
735.991,319.18
736.491,318.89
736.991,318.61
737.491,318.33
737.991,318.04
738.491,317.76
738.991,317.48
739.491,317.2
739.991,316.93
740.491,316.65
740.991,316.38
741.491,316.11
741.991,315.83
742.491,315.56
742.991,315.29
743.491,315.03
743.991,314.76
744.491,314.49
744.991,314.23
745.491,313.96
745.991,313.7
746.491,313.44
746.991,313.18
747.491,312.92
747.991,312.66
748.491,312.41
748.991,312.15
749.491,311.9
749.991,311.64
750.491,311.39
750.991,311.14
751.491,310.89
751.991,310.64
752.491,310.39
752.991,310.14
753.491,309.9
753.991,309.65
754.491,309.41
754.991,309.16
755.491,308.92
755.991,308.68
756.491,308.44
756.991,308.2
757.491,307.96
757.991,307.72
758.491,307.49
758.991,307.25
759.491,307.02
759.991,306.78
760.491,306.55
760.991,306.32
761.491,306.09
761.991,305.86
762.491,305.63
762.991,305.4
763.491,305.17
763.991,304.94
764.491,304.72
764.991,304.49
765.491,304.27
765.991,304.04
766.491,303.82
766.991,303.6
767.491,303.38
767.991,303.16
768.491,302.94
768.991,302.72
769.491,302.5
769.991,302.28
770.491,302.07
770.991,301.85
771.491,301.64
771.991,301.42
772.491,301.21
772.991,301
773.491,300.79
773.991,300.58
774.491,300.37
774.991,300.16
775.491,299.95
775.991,299.74
776.491,299.53
776.991,299.33
777.491,299.12
777.991,298.92
778.491,298.71
778.991,298.51
779.491,298.31
779.991,298.1
780.491,297.9
780.991,297.7
781.491,297.5
781.991,297.3
782.491,297.1
782.991,296.9
783.491,296.71
783.991,296.51
784.491,296.31
784.991,296.12
785.491,295.93
785.991,295.73
786.491,295.54
786.991,295.35
787.491,295.15
787.991,294.96
788.491,294.77
788.991,294.58
789.491,294.39
789.991,294.2
790.491,294.01
790.991,293.83
791.491,293.64
791.991,293.45
792.491,293.27
792.991,293.08
793.491,292.9
793.991,292.72
794.491,292.53
794.991,292.35
795.491,292.17
795.991,291.99
796.491,291.8
796.991,291.62
797.491,291.44
797.991,291.27
798.491,291.09
798.991,290.91
799.491,290.73
799.991,290.56
800.491,290.38
800.991,290.2
801.491,290.03
801.991,289.85
802.491,289.68
802.991,289.51
803.491,289.33
803.991,289.16
804.491,288.99
804.991,288.82
805.491,288.65
805.991,288.48
806.491,288.31
806.991,288.14
807.491,287.97
807.991,287.8
808.491,287.63
808.991,287.47
809.491,287.3
809.991,287.14
810.491,286.97
810.991,286.8
811.491,286.64
811.991,286.48
812.491,286.31
812.991,286.15
813.491,285.99
813.991,285.83
814.491,285.66
814.991,285.5
815.491,285.34
815.991,285.18
816.491,285.02
816.991,284.87
817.491,284.71
817.991,284.55
818.491,284.39
818.991,284.23
819.491,284.08
819.991,283.92
820.491,283.77
820.991,283.61
821.491,283.46
821.991,283.3
822.491,283.15
822.991,283
823.491,282.84
823.991,282.69
824.491,282.54
824.991,282.39
825.491,282.24
825.991,282.09
826.491,281.94
826.991,281.79
827.491,281.64
827.991,281.49
828.491,281.34
828.991,281.19
829.491,281.04
829.991,280.9
830.491,280.75
830.991,280.6
831.491,280.46
831.991,280.31
832.491,280.17
832.991,280.02
833.491,279.88
833.991,279.74
834.491,279.59
834.991,279.45
835.491,279.31
835.991,279.17
836.491,279.02
836.991,278.88
837.491,278.74
837.991,278.6
838.491,278.46
838.991,278.32
839.491,278.18
839.991,278.05
840.491,277.91
840.991,277.77
841.491,277.63
841.991,277.49
842.491,277.36
842.991,277.22
843.491,277.09
843.991,276.95
844.491,276.81
844.991,276.68
845.491,276.54
845.991,276.41
846.491,276.28
846.991,276.14
847.491,276.01
847.991,275.88
848.491,275.75
848.991,275.61
849.491,275.48
849.991,275.35
850.491,275.22
850.991,275.09
851.491,274.96
851.991,274.83
852.491,274.7
852.991,274.57
853.491,274.44
853.991,274.32
854.491,274.19
854.991,274.06
855.491,273.93
855.991,273.81
856.491,273.68
856.991,273.55
857.491,273.43
857.991,273.3
858.491,273.18
858.991,273.05
859.491,272.93
859.991,272.8
860.491,272.68
860.991,272.56
861.491,272.43
861.991,272.31
862.491,272.19
862.991,272.07
863.491,271.94
863.991,271.82
864.491,271.7
864.991,271.58
865.491,271.46
865.991,271.34
866.491,271.22
866.991,271.1
867.491,270.98
867.991,270.86
868.491,270.74
868.991,270.63
869.491,270.51
869.991,270.39
870.491,270.27
870.991,270.16
871.491,270.04
871.991,269.92
872.491,269.81
872.991,269.69
873.491,269.58
873.991,269.46
874.491,269.35
874.991,269.23
875.491,269.12
875.991,269
876.491,268.89
876.991,268.78
877.491,268.66
877.991,268.55
878.491,268.44
878.991,268.33
879.491,268.21
879.991,268.1
880.491,267.99
880.991,267.88
881.491,267.77
881.991,267.66
882.491,267.55
882.991,267.44
883.491,267.33
883.991,267.22
884.491,267.11
884.991,267
885.491,266.89
885.991,266.78
886.491,266.68
886.991,266.57
887.491,266.46
887.991,266.35
888.491,266.25
888.991,266.14
889.491,266.03
889.991,265.93
890.491,265.82
890.991,265.72
891.491,265.61
891.991,265.51
892.491,265.4
892.991,265.3
893.491,265.19
893.991,265.09
894.491,264.99
894.991,264.88
895.491,264.78
895.991,264.68
896.491,264.57
896.991,264.47
897.491,264.37
897.991,264.27
898.491,264.17
898.991,264.06
899.491,263.96
899.991,263.86
900.491,263.76
900.991,263.66
901.491,263.56
901.991,263.46
902.491,263.36
902.991,263.26
903.491,263.16
903.991,263.06
904.491,262.97
904.991,262.87
905.491,262.77
905.991,262.67
906.491,262.57
906.991,262.48
907.491,262.38
907.991,262.28
908.491,262.18
908.991,262.09
909.491,261.99
909.991,261.9
910.491,261.8
910.991,261.7
911.491,261.61
911.991,261.51
912.491,261.42
912.991,261.32
913.491,261.23
913.991,261.14
914.491,261.04
914.991,260.95
915.491,260.85
915.991,260.76
916.491,260.67
916.991,260.58
917.491,260.48
917.991,260.39
918.491,260.3
918.991,260.21
919.491,260.11
919.991,260.02
920.491,259.93
920.991,259.84
921.491,259.75
921.991,259.66
922.491,259.57
922.991,259.48
923.491,259.39
923.991,259.3
924.491,259.21
924.991,259.12
925.491,259.03
925.991,258.94
926.491,258.85
926.991,258.76
927.491,258.67
927.991,258.59
928.491,258.5
928.991,258.41
929.491,258.32
929.991,258.24
930.491,258.15
930.991,258.06
931.491,257.98
931.991,257.89
932.491,257.8
932.991,257.72
933.491,257.63
933.991,257.54
934.491,257.46
934.991,257.37
935.491,257.29
935.991,257.2
936.491,257.12
936.991,257.03
937.491,256.95
937.991,256.87
938.491,256.78
938.991,256.7
939.491,256.61
939.991,256.53
940.491,256.45
940.991,256.36
941.491,256.28
941.991,256.2
942.491,256.12
942.991,256.03
943.491,255.95
943.991,255.87
944.491,255.79
944.991,255.71
945.491,255.63
945.991,255.54
946.491,255.46
946.991,255.38
947.491,255.3
947.991,255.22
948.491,255.14
948.991,255.06
949.491,254.98
949.991,254.9
950.491,254.82
950.991,254.74
951.491,254.66
951.991,254.58
952.491,254.51
952.991,254.43
953.491,254.35
953.991,254.27
954.491,254.19
954.991,254.11
955.491,254.04
955.991,253.96
956.491,253.88
956.991,253.8
957.491,253.73
957.991,253.65
958.491,253.57
958.991,253.5
959.491,253.42
959.991,253.34
960.491,253.27
960.991,253.19
961.491,253.12
961.991,253.04
962.491,252.96
962.991,252.89
963.491,252.81
963.991,252.74
964.491,252.66
964.991,252.59
965.491,252.52
965.991,252.44
966.491,252.37
966.991,252.29
967.491,252.22
967.991,252.15
968.491,252.07
968.991,252
969.491,251.93
969.991,251.85
970.491,251.78
970.991,251.71
971.491,251.63
971.991,251.56
972.491,251.49
972.991,251.42
973.491,251.35
973.991,251.27
974.491,251.2
974.991,251.13
975.491,251.06
975.991,250.99
976.491,250.92
976.991,250.85
977.491,250.78
977.991,250.7
978.491,250.63
978.991,250.56
979.491,250.49
979.991,250.42
980.491,250.35
980.991,250.28
981.491,250.22
981.991,250.15
982.491,250.08
982.991,250.01
983.491,249.94
983.991,249.87
984.491,249.8
984.991,249.73
985.491,249.66
985.991,249.6
986.491,249.53
986.991,249.46
987.491,249.39
987.991,249.32
988.491,249.26
988.991,249.19
989.491,249.12
989.991,249.06
990.491,248.99
990.991,248.92
991.491,248.85
991.991,248.79
992.491,248.72
992.991,248.66
993.491,248.59
993.991,248.52
994.491,248.46
994.991,248.39
995.491,248.33
995.991,248.26
996.491,248.2
996.991,248.13
997.491,248.07
997.991,248
998.491,247.94
998.991,247.87
999.491,247.81
999.991,247.74
1000.491,247.68
1000.991,247.61
1001.491,247.55
1001.991,247.49
1002.491,247.42
1002.991,247.36
1003.491,247.3
1003.991,247.23
1004.491,247.17
1004.991,247.11
1005.491,247.04
1005.991,246.98
1006.491,246.92
1006.991,246.85
1007.491,246.79
1007.991,246.73
1008.491,246.67
1008.991,246.61
1009.491,246.54
1009.991,246.48
1010.491,246.42
1010.991,246.36
1011.491,246.3
1011.991,246.24
1012.491,246.17
1012.991,246.11
1013.491,246.05
1013.991,245.99
1014.491,245.93
1014.991,245.87
1015.491,245.81
1015.991,245.75
1016.491,245.69
1016.991,245.63
1017.491,245.57
1017.991,245.51
1018.491,245.45
1018.991,245.39
1019.491,245.33
1019.991,245.27
1020.491,245.21
1020.991,245.15
1021.491,245.09
1021.991,245.03
1022.491,244.98
1022.991,244.92
1023.491,244.86
1023.991,244.8
1024.491,244.74
1024.991,244.68
1025.491,244.62
1025.991,244.57
1026.491,244.51
1026.991,244.45
1027.491,244.39
1027.991,244.34
1028.491,244.28
1028.991,244.22
1029.491,244.16
1029.991,244.11
1030.491,244.05
