wavelength,alpha(m=0)
400,117.29
401,73.35
402,39.25
403,11.61
404,-11.57
405,-31.57
406,-49.23
407,-65.13
408,-79.70
409,-93.24
410,-105.99
411,-118.13
412,-129.81
413,-141.16
414,-152.27
415,-163.23
416,-174.14
417,-185.07
418,-196.10
419,-207.31
420,-218.79
421,-230.65
422,-243.01
423,-256.05
424,-270.00
425,-285.19
426,-302.13
427,-321.67
428,-345.34
429,-376.29
430,-422.17
431,-507.87
432,-788.09
689,1584.13
400.5,93.79
401.5,55.32
402.5,24.77
403.5,-0.44
404.5,-21.91
405.5,-40.65
406.5,-57.37
407.5,-72.56
408.5,-86.58
409.5,-99.70
410.5,-112.13
411.5,-124.02
412.5,-135.52
413.5,-146.74
414.5,-157.76
415.5,-168.69
416.5,-179.60
417.5,-190.57
418.5,-201.67
419.5,-213.01
420.5,-224.66
421.5,-236.76
422.5,-249.44
423.5,-262.90
424.5,-277.42
425.5,-293.40
426.5,-311.50
427.5,-332.85
428.5,-359.60
429.5,-396.52
430.5,-456.77
431.5,-594.90
432.08,-844.34
432.16,-915.19
432.24,-1007.30
432.32,-1132.11
432.4,-1311.04
432.48,-1589.48
432.56,-2083.30
432.64,-3202.25
432.67,-4101.52
432.68,-4540.41
432.765,NaN
432.775,NaN
432.84,4596.53
432.85,4009.64
432.86,3547.79
432.87,3174.85
432.95,1651.34
433.03,1051.08
433.11,729.66
433.19,529.20
433.27,392.07
433.35,292.24
433.43,216.21
433.51,156.28
434.01,-46.45
434.51,-136.42
435.01,-189.36
435.51,-225.51
436.01,-252.69
436.51,-274.56
437.01,-293.04
437.51,-309.26
438.01,-323.92
438.51,-337.46
439.01,-350.21
439.51,-362.38
440.01,-374.14
440.51,-385.61
441.01,-396.89
441.51,-408.05
442.01,-419.16
442.51,-430.27
443.01,-441.42
443.51,-452.66
444.01,-464.01
444.51,-475.51
445.01,-487.20
445.51,-499.08
446.01,-511.21
446.8,-530.90
447.3,-543.74
447.8,-556.92
448.3,-570.44
448.8,-584.35
449.3,-598.67
449.8,-613.43
450.3,-628.67
450.8,-644.41
451.3,-660.69
451.8,-677.55
452.3,-695.03
452.8,-713.18
453.3,-732.05
453.8,-751.67
454.3,-772.12
454.8,-793.45
455.3,-815.74
455.8,-839.04
456.3,-863.46
456.8,-889.07
457.3,-915.97
457.8,-944.28
458.3,-974.13
458.8,-1005.64
459.3,-1038.99
459.8,-1074.33
460.3,-1111.89
460.36,-1116.55
460.42,-1121.25
460.48,-1125.99
460.54,-1130.76
460.58,-1133.97
460.61,-1136.38
460.64,-1138.80
460.67,-1141.23
460.7,-1143.67
460.73,-1146.12
460.76,-1148.58
460.79,-1151.05
460.82,-1153.53
460.85,-1156.02
460.87,-1157.68
460.9,-1160.19
460.93,-1162.70
460.96,-1165.23
460.99,-1167.76
461.02,-1170.31
461.05,-1172.86
461.08,-1175.43
461.11,-1178.01
461.14,-1180.59
461.17,-1183.19
461.23,-1188.41
461.29,-1193.68
461.35,-1198.99
461.41,-1204.34
461.91,-1250.73
462.41,-1300.56
462.91,-1354.24
463.41,-1412.28
463.91,-1475.26
464.41,-1543.88
464.91,-1619.00
465.41,-1701.64
465.91,-1793.07
466.41,-1894.87
466.91,-2009.03
467.6,-2191.71
468.1,-2347.04
468.6,-2527.11
469.1,-2738.76
469.6,-2991.68
470.1,-3300.05
470.6,-3685.45
471.1,-4185.28
471.6,-4856.72
474.325,NaN
474.35,NaN
476.55,3620.45
477.05,2578.89
477.55,1802.14
478.05,1169.33
478.55,611.57
479.05,81.69
479.55,-460.55
480.05,-1059.22
480.55,-1775.44
481.05,-2712.59
481.55,-4080.22
483.34000000000003,NaN
483.41499999999996,NaN
486.25,4564.57
486.75,4009.79
487.25,3590.04
487.75,3260.07
488.25,2992.98
488.75,2771.72
489.25,2584.98
489.75,2424.95
490.25,2286.03
490.75,2164.12
491.25,2056.14
491.75,1959.71
492.25,1872.99
492.75,1794.51
493.25,1723.10
493.75,1657.80
494.25,1597.82
494.75,1542.50
495.25,1491.30
495.75,1443.76
496.25,1399.46
496.75,1358.09
497.25,1319.34
497.75,1282.97
498.25,1248.74
498.75,1216.48
499.25,1186.00
499.75,1157.16
500.25,1129.81
500.75,1103.86
501.25,1079.17
501.75,1055.67
502.25,1033.26
502.75,1011.87
503.25,991.42
503.75,971.86
504.25,953.11
504.75,935.14
505.25,917.89
505.75,901.32
506.25,885.38
506.75,870.04
507.25,855.26
507.75,841.02
508.25,827.28
508.75,814.01
509.25,801.19
509.75,788.80
510.25,776.81
510.75,765.21
511.25,753.97
511.75,743.08
512.25,732.52
512.75,722.27
513.25,712.32
513.75,702.66
514.25,693.27
514.75,684.14
515.25,675.27
515.75,666.63
516.25,658.22
516.75,650.03
517.25,642.05
517.75,634.27
518.25,626.68
518.75,619.28
519.25,612.06
519.75,605.01
520.25,598.13
520.75,591.40
521.25,584.83
521.75,578.41
522.25,572.12
522.75,565.98
523.25,559.97
523.75,554.08
524.25,548.32
524.75,542.67
525.25,537.14
525.75,531.73
526.25,526.42
526.75,521.21
527.25,516.10
527.75,511.09
528.25,506.18
528.75,501.35
529.25,496.62
529.75,491.97
530.25,487.40
530.75,482.91
531.25,478.51
531.75,474.17
532.25,469.91
532.75,465.72
533.25,461.60
533.75,457.55
534.25,453.56
534.75,449.64
535.25,445.78
535.75,441.97
536.25,438.23
536.75,434.54
537.25,430.91
537.75,427.33
538.25,423.80
538.75,420.33
539.25,416.90
539.75,413.52
540.25,410.19
540.75,406.90
541.25,403.66
541.75,400.45
542.25,397.30
542.75,394.18
543.25,391.10
543.75,388.06
544.25,385.06
544.75,382.10
545.25,379.17
545.75,376.28
546.25,373.42
546.75,370.60
547.25,367.80
547.75,365.04
548.25,362.31
548.75,359.61
549.25,356.94
549.75,354.30
550.25,351.69
550.75,349.10
551.25,346.54
551.75,344.01
552.25,341.50
552.75,339.02
553.25,336.56
553.75,334.12
554.25,331.71
554.75,329.32
555.25,326.95
555.75,324.60
556.25,322.27
556.75,319.97
557.25,317.68
557.75,315.41
558.25,313.17
558.75,310.94
559.25,308.72
559.75,306.53
560.25,304.35
560.75,302.19
561.25,300.05
561.75,297.92
562.25,295.80
562.75,293.70
563.25,291.62
563.75,289.55
564.25,287.49
564.75,285.45
565.25,283.42
565.75,281.40
566.25,279.40
566.75,277.41
567.25,275.43
567.75,273.46
568.25,271.50
568.75,269.55
569.25,267.61
569.75,265.68
570.25,263.77
570.75,261.86
571.25,259.96
571.75,258.07
572.25,256.18
572.75,254.31
573.25,252.44
573.75,250.59
574.25,248.74
574.75,246.89
575.25,245.05
575.75,243.22
576.25,241.40
576.75,239.58
577.25,237.77
577.75,235.96
578.25,234.16
578.75,232.36
579.25,230.57
579.75,228.78
580.25,227.00
580.75,225.22
581.25,223.44
581.75,221.67
582.25,219.90
582.75,218.13
583.25,216.37
583.75,214.60
584.25,212.84
584.75,211.08
585.25,209.33
585.75,207.57
586.25,205.82
586.75,204.06
587.25,202.31
587.75,200.56
588.25,198.81
588.75,197.05
589.25,195.30
589.75,193.55
590.25,191.79
590.75,190.03
591.25,188.28
591.75,186.52
592.25,184.75
592.75,182.99
593.25,181.22
593.75,179.45
594.25,177.68
594.75,175.91
595.25,174.13
595.75,172.34
596.25,170.55
596.75,168.76
597.25,166.96
597.75,165.16
598.25,163.35
598.75,161.54
599.25,159.72
599.75,157.89
600.25,156.06
600.75,154.22
601.25,152.37
601.75,150.52
602.25,148.65
602.75,146.78
603.25,144.90
603.75,143.01
604.25,141.11
604.75,139.20
605.25,137.28
605.75,135.35
606.25,133.41
606.75,131.46
607.25,129.50
607.75,127.52
608.25,125.53
608.75,123.53
609.25,121.51
609.75,119.49
610.25,117.44
610.75,115.38
611.25,113.31
611.75,111.22
612.25,109.11
612.75,106.99
613.25,104.84
613.75,102.68
614.25,100.51
614.75,98.31
615.25,96.09
615.75,93.85
616.25,91.59
616.75,89.31
617.25,87.01
617.75,84.68
618.25,82.33
618.75,79.96
619.25,77.56
619.75,75.13
620.25,72.67
620.75,70.19
621.25,67.68
621.75,65.14
622.25,62.57
622.75,59.97
623.25,57.34
623.75,54.67
624.25,51.96
624.75,49.23
625.25,46.45
625.75,43.64
626.25,40.79
626.75,37.90
627.25,34.96
627.75,31.99
628.25,28.96
628.75,25.90
629.25,22.78
629.75,19.62
630.25,16.41
630.75,13.14
631.25,9.82
631.75,6.44
632.25,3.01
632.75,-0.48
633.25,-4.04
633.75,-7.66
634.25,-11.34
634.75,-15.10
635.25,-18.92
635.75,-22.82
636.25,-26.79
636.75,-30.85
637.25,-34.98
637.75,-39.21
638.25,-43.51
638.75,-47.92
639.25,-52.41
639.75,-57.01
640.25,-61.71
640.75,-66.52
641.25,-71.43
641.75,-76.47
642.25,-81.62
642.75,-86.90
643.25,-92.32
643.75,-97.87
644.25,-103.56
644.75,-109.40
645.25,-115.40
645.75,-121.57
646.25,-127.90
646.75,-134.41
647.25,-141.11
647.75,-148.01
648.25,-155.11
648.75,-162.43
649.25,-169.97
649.75,-177.76
650.25,-185.80
650.75,-194.10
651.25,-202.68
651.75,-211.55
652.25,-220.74
652.75,-230.25
653.25,-240.11
653.75,-250.34
654.25,-260.97
654.75,-272.00
655.25,-283.48
655.75,-295.42
656.25,-307.87
656.75,-320.84
657.25,-334.39
657.75,-348.54
658.25,-363.35
658.75,-378.86
659.25,-395.12
659.75,-412.19
660.25,-430.14
660.75,-449.03
661.25,-468.95
661.75,-489.98
662.25,-512.22
662.75,-535.78
663.25,-560.79
663.75,-587.38
664.25,-615.71
664.75,-645.97
665.25,-678.35
665.75,-713.10
666.25,-750.48
666.75,-790.81
667.25,-834.46
667.75,-881.87
668.25,-933.53
668.75,-990.06
669.25,-1052.19
669.75,-1120.79
670.25,-1196.94
670.75,-1281.97
671.25,-1377.53
671.75,-1485.71
672.25,-1609.22
672.75,-1751.56
673.25,-1917.42
673.75,-2113.15
674.25,-2347.66
674.75,-2633.76
675.25,-2990.59
675.75,-3448.16
676.25,-4056.16
676.75,-4903.46
679.29,NaN
679.335,NaN
682.36,4499.42
682.86,3902.98
683.36,3452.93
683.86,3101.27
684.4,2798.70
684.9,2570.42
685.4,2379.45
685.9,2217.32
686.4,2077.95
686.9,1956.86
687.4,1850.66
687.9,1756.77
688.4,1673.15
688.9,1598.20
688.95,1591.13
689.05,1577.20
689.1,1570.35
689.15,1563.56
689.2,1556.84
689.25,1550.19
689.3,1543.61
689.35,1537.09
689.4,1530.63
689.415,1528.71
689.419,1528.20
689.423,1527.69
689.427,1527.17
689.431,1526.66
689.435,1526.15
689.439,1525.64
689.443,1525.13
689.447,1524.62
689.451,1524.11
689.455,1523.61
689.459,1523.10
689.463,1522.59
689.467,1522.08
689.471,1521.58
689.475,1521.07
689.479,1520.56
689.483,1520.06
689.487,1519.55
689.491,1519.05
689.541,1512.77
689.591,1506.55
689.641,1500.39
689.691,1494.29
689.741,1488.25
689.791,1482.26
689.841,1476.34
689.891,1470.46
689.941,1464.65
689.991,1458.88
690.491,1404.06
690.991,1353.91
691.491,1307.84
691.991,1265.38
692.491,1226.11
692.991,1189.69
693.491,1155.82
693.991,1124.23
694.491,1094.71
694.991,1067.04
695.491,1041.07
695.991,1016.64
696.491,993.62
696.991,971.88
697.491,951.32
697.991,931.85
698.491,913.38
698.991,895.83
699.491,879.14
699.991,863.24
700.491,848.09
700.991,833.62
701.491,819.79
701.991,806.56
702.491,793.89
702.991,781.74
703.491,770.09
703.991,758.90
704.491,748.14
704.991,737.80
705.491,727.84
705.991,718.24
706.491,708.99
706.991,700.06
707.491,691.45
707.991,683.12
708.491,675.07
708.991,667.29
709.491,659.76
709.991,652.46
710.491,645.40
710.991,638.54
711.491,631.90
711.991,625.45
712.491,619.19
712.991,613.11
713.491,607.20
713.991,601.45
714.491,595.86
714.991,590.43
715.491,585.13
715.991,579.98
716.491,574.96
716.991,570.06
717.491,565.29
717.991,560.64
718.491,556.10
718.991,551.67
719.491,547.35
719.991,543.12
720.491,539.00
720.991,534.97
721.491,531.03
721.991,527.18
722.491,523.41
722.991,519.72
723.491,516.12
723.991,512.59
724.491,509.13
724.991,505.75
725.491,502.43
725.991,499.18
726.491,496.00
726.991,492.88
727.491,489.82
727.991,486.82
728.491,483.87
728.991,480.99
729.491,478.15
729.991,475.37
730.491,472.64
730.991,469.96
731.491,467.33
731.991,464.74
732.491,462.20
732.991,459.70
733.491,457.25
733.991,454.84
734.491,452.46
734.991,450.13
735.491,447.84
735.991,445.58
736.491,443.36
736.991,441.18
737.491,439.03
737.991,436.91
738.491,434.83
738.991,432.78
739.491,430.76
739.991,428.77
740.491,426.81
740.991,424.88
741.491,422.98
741.991,421.11
742.491,419.26
742.991,417.44
743.491,415.65
743.991,413.88
744.491,412.13
744.991,410.41
745.491,408.72
745.991,407.04
746.491,405.39
746.991,403.76
747.491,402.16
747.991,400.57
748.491,399.01
748.991,397.46
749.491,395.94
749.991,394.43
750.491,392.95
750.991,391.48
751.491,390.03
751.991,388.60
752.491,387.18
752.991,385.79
753.491,384.41
753.991,383.04
754.491,381.70
754.991,380.36
755.491,379.05
755.991,377.75
756.491,376.46
756.991,375.19
757.491,373.94
757.991,372.69
758.491,371.47
758.991,370.25
759.491,369.05
759.991,367.86
760.491,366.69
760.991,365.52
761.491,364.37
761.991,363.24
762.491,362.11
762.991,361.00
763.491,359.90
763.991,358.80
764.491,357.73
764.991,356.66
765.491,355.60
765.991,354.55
766.491,353.52
766.991,352.49
767.491,351.47
767.991,350.47
768.491,349.47
768.991,348.48
769.491,347.51
769.991,346.54
770.491,345.58
770.991,344.63
771.491,343.69
771.991,342.76
772.491,341.84
772.991,340.92
773.491,340.01
773.991,339.12
774.491,338.23
774.991,337.34
775.491,336.47
775.991,335.60
776.491,334.74
776.991,333.89
777.491,333.05
777.991,332.21
778.491,331.38
778.991,330.56
779.491,329.75
779.991,328.94
780.491,328.14
780.991,327.34
781.491,326.55
781.991,325.77
782.491,325.00
782.991,324.23
783.491,323.46
783.991,322.71
784.491,321.96
784.991,321.21
785.491,320.47
785.991,319.74
786.491,319.01
786.991,318.29
787.491,317.58
787.991,316.86
788.491,316.16
788.991,315.46
789.491,314.77
789.991,314.08
790.491,313.39
790.991,312.71
791.491,312.04
791.991,311.37
792.491,310.71
792.991,310.05
793.491,309.40
793.991,308.75
794.491,308.10
794.991,307.46
795.491,306.83
795.991,306.19
796.491,305.57
796.991,304.94
797.491,304.33
797.991,303.71
798.491,303.10
798.991,302.50
799.491,301.90
799.991,301.30
800.491,300.71
800.991,300.12
801.491,299.53
801.991,298.95
802.491,298.37
802.991,297.80
803.491,297.23
803.991,296.66
804.491,296.10
804.991,295.54
805.491,294.99
805.991,294.44
806.491,293.89
806.991,293.34
807.491,292.80
807.991,292.26
808.491,291.73
808.991,291.20
809.491,290.67
809.991,290.15
810.491,289.62
810.991,289.11
811.491,288.59
811.991,288.08
812.491,287.57
812.991,287.06
813.491,286.56
813.991,286.06
814.491,285.56
814.991,285.07
815.491,284.58
815.991,284.09
816.491,283.61
816.991,283.12
817.491,282.64
817.991,282.17
818.491,281.69
818.991,281.22
819.491,280.75
819.991,280.28
820.491,279.82
820.991,279.36
821.491,278.90
821.991,278.44
822.491,277.99
822.991,277.54
823.491,277.09
823.991,276.64
824.491,276.20
824.991,275.76
825.491,275.32
825.991,274.88
826.491,274.45
826.991,274.01
827.491,273.58
827.991,273.16
828.491,272.73
828.991,272.31
829.491,271.89
829.991,271.47
830.491,271.05
830.991,270.64
831.491,270.22
831.991,269.81
832.491,269.40
832.991,269.00
833.491,268.59
833.991,268.19
834.491,267.79
834.991,267.39
835.491,266.99
835.991,266.60
836.491,266.21
836.991,265.82
837.491,265.43
837.991,265.04
838.491,264.66
838.991,264.27
839.491,263.89
839.991,263.51
840.491,263.13
840.991,262.76
841.491,262.38
841.991,262.01
842.491,261.64
842.991,261.27
843.491,260.90
843.991,260.54
844.491,260.17
844.991,259.81
845.491,259.45
845.991,259.09
846.491,258.73
846.991,258.37
847.491,258.02
847.991,257.67
848.491,257.31
848.991,256.97
849.491,256.62
849.991,256.27
850.491,255.92
850.991,255.58
851.491,255.24
851.991,254.90
852.491,254.56
852.991,254.22
853.491,253.88
853.991,253.55
854.491,253.21
854.991,252.88
855.491,252.55
855.991,252.22
856.491,251.89
856.991,251.57
857.491,251.24
857.991,250.92
858.491,250.59
858.991,250.27
859.491,249.95
859.991,249.63
860.491,249.31
860.991,249.00
861.491,248.68
861.991,248.37
862.491,248.06
862.991,247.75
863.491,247.43
863.991,247.13
864.491,246.82
864.991,246.51
865.491,246.21
865.991,245.90
866.491,245.60
866.991,245.30
867.491,245.00
867.991,244.70
868.491,244.40
868.991,244.10
869.491,243.80
869.991,243.51
870.491,243.21
870.991,242.92
871.491,242.63
871.991,242.34
872.491,242.05
872.991,241.76
873.491,241.47
873.991,241.19
874.491,240.90
874.991,240.62
875.491,240.33
875.991,240.05
876.491,239.77
876.991,239.49
877.491,239.21
877.991,238.93
878.491,238.65
878.991,238.37
879.491,238.10
879.991,237.82
880.491,237.55
880.991,237.28
881.491,237.01
881.991,236.74
882.491,236.47
882.991,236.20
883.491,235.93
883.991,235.66
884.491,235.39
884.991,235.13
885.491,234.86
885.991,234.60
886.491,234.34
886.991,234.08
887.491,233.81
887.991,233.55
888.491,233.29
888.991,233.04
889.491,232.78
889.991,232.52
890.491,232.26
890.991,232.01
891.491,231.76
891.991,231.50
892.491,231.25
892.991,231.00
893.491,230.75
893.991,230.49
894.491,230.24
894.991,230.00
895.491,229.75
895.991,229.50
896.491,229.25
896.991,229.01
897.491,228.76
897.991,228.52
898.491,228.27
898.991,228.03
899.491,227.79
899.991,227.55
900.491,227.31
900.991,227.07
901.491,226.83
901.991,226.59
902.491,226.35
902.991,226.11
903.491,225.88
903.991,225.64
904.491,225.41
904.991,225.17
905.491,224.94
905.991,224.71
906.491,224.47
906.991,224.24
907.491,224.01
907.991,223.78
908.491,223.55
908.991,223.32
909.491,223.09
909.991,222.87
910.491,222.64
910.991,222.41
911.491,222.19
911.991,221.96
912.491,221.74
912.991,221.51
913.491,221.29
913.991,221.07
914.491,220.84
914.991,220.62
915.491,220.40
915.991,220.18
916.491,219.96
916.991,219.74
917.491,219.52
917.991,219.30
918.491,219.09
918.991,218.87
919.491,218.65
919.991,218.44
920.491,218.22
920.991,218.01
921.491,217.79
921.991,217.58
922.491,217.37
922.991,217.15
923.491,216.94
923.991,216.73
924.491,216.52
924.991,216.31
925.491,216.10
925.991,215.89
926.491,215.68
926.991,215.47
927.491,215.27
927.991,215.06
928.491,214.85
928.991,214.65
929.491,214.44
929.991,214.23
930.491,214.03
930.991,213.83
931.491,213.62
931.991,213.42
932.491,213.22
932.991,213.01
933.491,212.81
933.991,212.61
934.491,212.41
934.991,212.21
935.491,212.01
935.991,211.81
936.491,211.61
936.991,211.41
937.491,211.22
937.991,211.02
938.491,210.82
938.991,210.62
939.491,210.43
939.991,210.23
940.491,210.04
940.991,209.84
941.491,209.65
941.991,209.45
942.491,209.26
942.991,209.07
943.491,208.87
943.991,208.68
944.491,208.49
944.991,208.30
945.491,208.11
945.991,207.92
946.491,207.73
946.991,207.54
947.491,207.35
947.991,207.16
948.491,206.97
948.991,206.78
949.491,206.59
949.991,206.41
950.491,206.22
950.991,206.03
951.491,205.85
951.991,205.66
952.491,205.48
952.991,205.29
953.491,205.11
953.991,204.92
954.491,204.74
954.991,204.55
955.491,204.37
955.991,204.19
956.491,204.01
956.991,203.82
957.491,203.64
957.991,203.46
958.491,203.28
958.991,203.10
959.491,202.92
959.991,202.74
960.491,202.56
960.991,202.38
961.491,202.20
961.991,202.02
962.491,201.85
962.991,201.67
963.491,201.49
963.991,201.31
964.491,201.14
964.991,200.96
965.491,200.79
965.991,200.61
966.491,200.43
966.991,200.26
967.491,200.09
967.991,199.91
968.491,199.74
968.991,199.56
969.491,199.39
969.991,199.22
970.491,199.04
970.991,198.87
971.491,198.70
971.991,198.53
972.491,198.36
972.991,198.18
973.491,198.01
973.991,197.84
974.491,197.67
974.991,197.50
975.491,197.33
975.991,197.16
976.491,197.00
976.991,196.83
977.491,196.66
977.991,196.49
978.491,196.32
978.991,196.15
979.491,195.99
979.991,195.82
980.491,195.65
980.991,195.49
981.491,195.32
981.991,195.15
982.491,194.99
982.991,194.82
983.491,194.66
983.991,194.49
984.491,194.33
984.991,194.17
985.491,194.00
985.991,193.84
986.491,193.67
986.991,193.51
987.491,193.35
987.991,193.19
988.491,193.02
988.991,192.86
989.491,192.70
989.991,192.54
990.491,192.38
990.991,192.22
991.491,192.06
991.991,191.89
992.491,191.73
992.991,191.57
993.491,191.41
993.991,191.26
994.491,191.10
994.991,190.94
995.491,190.78
995.991,190.62
996.491,190.46
996.991,190.30
997.491,190.15
997.991,189.99
998.491,189.83
998.991,189.67
999.491,189.52
999.991,189.36
1000.491,189.20
1000.991,189.05
1001.491,188.89
1001.991,188.74
1002.491,188.58
1002.991,188.42
1003.491,188.27
1003.991,188.11
1004.491,187.96
1004.991,187.81
1005.491,187.65
1005.991,187.50
1006.491,187.34
1006.991,187.19
1007.491,187.04
1007.991,186.88
1008.491,186.73
1008.991,186.58
1009.491,186.43
1009.991,186.27
1010.491,186.12
1010.991,185.97
1011.491,185.82
1011.991,185.67
1012.491,185.52
1012.991,185.37
1013.491,185.21
1013.991,185.06
1014.491,184.91
1014.991,184.76
1015.491,184.61
1015.991,184.46
1016.491,184.31
1016.991,184.16
1017.491,184.02
1017.991,183.87
1018.491,183.72
1018.991,183.57
1019.491,183.42
1019.991,183.27
1020.491,183.12
1020.991,182.98
1021.491,182.83
1021.991,182.68
1022.491,182.53
1022.991,182.39
1023.491,182.24
1023.991,182.09
1024.491,181.95
1024.991,181.80
1025.491,181.65
1025.991,181.51
1026.491,181.36
1026.991,181.22
1027.491,181.07
1027.991,180.93
1028.491,180.78
1028.991,180.64
1029.491,180.49
1029.991,180.35
1030.491,180.20
1030.991,180.06
1031.491,179.91
1031.991,179.77
1032.491,179.63
1032.991,179.48
1033.491,179.34
1033.991,179.20
1034.491,179.05
1034.991,178.91
1035.491,178.77
1035.991,178.62
1036.491,178.48
1036.991,178.34
1037.491,178.20
1037.991,178.06
1038.491,177.91
1038.991,177.77
1039.491,177.63
1039.991,177.49
1040.491,177.35
1040.991,177.21
1041.491,177.07
1041.991,176.93
1042.491,176.79
1042.991,176.64
1043.491,176.50
1043.991,176.36
1044.491,176.22
1044.991,176.08
